Sample	202007_MS01
Comments	 
Filename	C:\Data\Chao\2020\202007\202007_MS01_2É∆_É∆.raw
Goniometer	MiniFlex 300/600 +
Attachment	ïWèÄééóøë‰
Monochromater	None
X	0
Y	0
Z	0
ScanningMode	2Theta/Theta
ScanningType	Continuos Scanning
X-Ray	30kV/10mA
IHS	10.0mm
DS	0.625deg
SS	8.0mm
RS	13.0mm(Open)
None	
Start	10
Stop	60
Step	0.01
Speed	3
Offset	0
TempUnit	Celsius
StartTime	2020/07/31	14:38:41
StartTemp	0
StopTime	2020/07/31	14:57:15
StopTemp	0
10	2740
10.01	2700
10.02	2740
10.03	2705
10.04	2645
10.05	2750
10.06	2770
10.07	2710
10.08	2695
10.09	2730
10.1	2730
10.11	2765
10.12	2740
10.13	2770
10.14	2840
10.15	2760
10.16	2715
10.17	2675
10.18	2610
10.19	2670
10.2	2720
10.21	2730
10.22	2670
10.23	2680
10.24	2780
10.25	2795
10.26	2765
10.27	2675
10.28	2675
10.29	2790
10.3	2755
10.31	2785
10.32	2885
10.33	2840
10.34	2705
10.35	2675
10.36	2640
10.37	2600
10.38	2680
10.39	2750
10.4	2765
10.41	2825
10.42	2735
10.43	2615
10.44	2655
10.45	2880
10.46	2980
10.47	2780
10.48	2725
10.49	2755
10.5	2715
10.51	2735
10.52	2810
10.53	2720
10.54	2610
10.55	2635
10.56	2645
10.57	2660
10.58	2735
10.59	2665
10.6	2585
10.61	2585
10.62	2570
10.63	2635
10.64	2745
10.65	2815
10.66	2745
10.67	2710
10.68	2655
10.69	2735
10.7	2725
10.71	2685
10.72	2735
10.73	2790
10.74	2830
10.75	2825
10.76	2785
10.77	2785
10.78	2755
10.79	2665
10.8	2665
10.81	2660
10.82	2715
10.83	2850
10.84	2835
10.85	2720
10.86	2810
10.87	2835
10.88	2770
10.89	2805
10.9	2750
10.91	2635
10.92	2675
10.93	2670
10.94	2685
10.95	2675
10.96	2595
10.97	2755
10.98	2830
10.99	2810
11	2780
11.01	2800
11.02	2800
11.03	2730
11.04	2735
11.05	2805
11.06	2755
11.07	2720
11.08	2670
11.09	2730
11.1	2845
11.11	2855
11.12	2765
11.13	2785
11.14	2775
11.15	2780
11.16	2725
11.17	2745
11.18	2695
11.19	2645
11.2	2610
11.21	2575
11.22	2675
11.23	2720
11.24	2655
11.25	2595
11.26	2685
11.27	2695
11.28	2660
11.29	2580
11.3	2600
11.31	2680
11.32	2715
11.33	2695
11.34	2740
11.35	2665
11.36	2685
11.37	2715
11.38	2700
11.39	2650
11.4	2640
11.41	2695
11.42	2720
11.43	2690
11.44	2595
11.45	2575
11.46	2595
11.47	2660
11.48	2680
11.49	2645
11.5	2660
11.51	2670
11.52	2685
11.53	2670
11.54	2650
11.55	2635
11.56	2715
11.57	2685
11.58	2635
11.59	2625
11.6	2600
11.61	2590
11.62	2610
11.63	2675
11.64	2740
11.65	2785
11.66	2785
11.67	2755
11.68	2710
11.69	2670
11.7	2580
11.71	2530
11.72	2505
11.73	2485
11.74	2600
11.75	2675
11.76	2635
11.77	2670
11.78	2785
11.79	2800
11.8	2735
11.81	2700
11.82	2785
11.83	2800
11.84	2750
11.85	2720
11.86	2750
11.87	2820
11.88	2700
11.89	2665
11.9	2740
11.91	2735
11.92	2700
11.93	2620
11.94	2530
11.95	2705
11.96	2785
11.97	2695
11.98	2680
11.99	2685
12	2735
12.01	2705
12.02	2650
12.03	2690
12.04	2655
12.05	2625
12.06	2595
12.07	2570
12.08	2600
12.09	2635
12.1	2640
12.11	2705
12.12	2615
12.13	2550
12.14	2555
12.15	2505
12.16	2590
12.17	2680
12.18	2700
12.19	2665
12.2	2645
12.21	2675
12.22	2730
12.23	2720
12.24	2755
12.25	2785
12.26	2705
12.27	2665
12.28	2625
12.29	2645
12.3	2650
12.31	2605
12.32	2615
12.33	2610
12.34	2590
12.35	2530
12.36	2480
12.37	2570
12.38	2660
12.39	2645
12.4	2585
12.41	2575
12.42	2590
12.43	2620
12.44	2625
12.45	2665
12.46	2755
12.47	2755
12.48	2695
12.49	2605
12.5	2550
12.51	2515
12.52	2490
12.53	2535
12.54	2645
12.55	2675
12.56	2585
12.57	2615
12.58	2680
12.59	2760
12.6	2765
12.61	2630
12.62	2500
12.63	2565
12.64	2570
12.65	2565
12.66	2585
12.67	2510
12.68	2490
12.69	2515
12.7	2525
12.71	2495
12.72	2465
12.73	2470
12.74	2535
12.75	2555
12.76	2520
12.77	2550
12.78	2585
12.79	2540
12.8	2570
12.81	2635
12.82	2575
12.83	2625
12.84	2585
12.85	2620
12.86	2590
12.87	2440
12.88	2435
12.89	2470
12.9	2500
12.91	2510
12.92	2480
12.93	2565
12.94	2605
12.95	2535
12.96	2535
12.97	2550
12.98	2540
12.99	2535
13	2540
13.01	2550
13.02	2560
13.03	2450
13.04	2460
13.05	2540
13.06	2575
13.07	2625
13.08	2570
13.09	2485
13.1	2520
13.11	2545
13.12	2515
13.13	2495
13.14	2480
13.15	2585
13.16	2630
13.17	2525
13.18	2500
13.19	2540
13.2	2540
13.21	2510
13.22	2505
13.23	2495
13.24	2525
13.25	2500
13.26	2445
13.27	2415
13.28	2400
13.29	2405
13.3	2400
13.31	2345
13.32	2420
13.33	2560
13.34	2550
13.35	2450
13.36	2385
13.37	2405
13.38	2530
13.39	2495
13.4	2545
13.41	2690
13.42	2655
13.43	2550
13.44	2495
13.45	2575
13.46	2455
13.47	2350
13.48	2355
13.49	2425
13.5	2455
13.51	2420
13.52	2485
13.53	2595
13.54	2575
13.55	2530
13.56	2425
13.57	2375
13.58	2450
13.59	2465
13.6	2510
13.61	2540
13.62	2480
13.63	2490
13.64	2550
13.65	2500
13.66	2470
13.67	2490
13.68	2470
13.69	2390
13.7	2375
13.71	2495
13.72	2540
13.73	2445
13.74	2430
13.75	2400
13.76	2425
13.77	2470
13.78	2580
13.79	2605
13.8	2470
13.81	2390
13.82	2420
13.83	2405
13.84	2335
13.85	2350
13.86	2485
13.87	2625
13.88	2625
13.89	2520
13.9	2515
13.91	2505
13.92	2360
13.93	2390
13.94	2465
13.95	2455
13.96	2505
13.97	2525
13.98	2515
13.99	2445
14	2400
14.01	2445
14.02	2425
14.03	2400
14.04	2435
14.05	2480
14.06	2575
14.07	2570
14.08	2410
14.09	2285
14.1	2355
14.11	2495
14.12	2450
14.13	2370
14.14	2365
14.15	2320
14.16	2415
14.17	2515
14.18	2505
14.19	2480
14.2	2405
14.21	2375
14.22	2455
14.23	2490
14.24	2465
14.25	2450
14.26	2380
14.27	2410
14.28	2470
14.29	2485
14.3	2520
14.31	2490
14.32	2445
14.33	2480
14.34	2530
14.35	2480
14.36	2350
14.37	2315
14.38	2335
14.39	2375
14.4	2430
14.41	2490
14.42	2410
14.43	2370
14.44	2370
14.45	2400
14.46	2420
14.47	2370
14.48	2370
14.49	2475
14.5	2410
14.51	2355
14.52	2375
14.53	2385
14.54	2425
14.55	2405
14.56	2520
14.57	2565
14.58	2525
14.59	2510
14.6	2435
14.61	2400
14.62	2450
14.63	2500
14.64	2455
14.65	2410
14.66	2455
14.67	2485
14.68	2530
14.69	2565
14.7	2410
14.71	2460
14.72	2595
14.73	2575
14.74	2460
14.75	2310
14.76	2345
14.77	2390
14.78	2410
14.79	2465
14.8	2390
14.81	2325
14.82	2335
14.83	2355
14.84	2470
14.85	2535
14.86	2550
14.87	2590
14.88	2600
14.89	2640
14.9	2605
14.91	2590
14.92	2605
14.93	2765
14.94	2935
14.95	3070
14.96	3210
14.97	3340
14.98	3480
14.99	3665
15	3935
15.01	4255
15.02	4590
15.03	4540
15.04	4250
15.05	4110
15.06	4085
15.07	4005
15.08	3830
15.09	3560
15.1	3330
15.11	3295
15.12	3195
15.13	3080
15.14	2930
15.15	2815
15.16	2850
15.17	2785
15.18	2640
15.19	2650
15.2	2565
15.21	2480
15.22	2455
15.23	2470
15.24	2400
15.25	2340
15.26	2410
15.27	2430
15.28	2440
15.29	2465
15.3	2385
15.31	2365
15.32	2435
15.33	2475
15.34	2315
15.35	2350
15.36	2325
15.37	2305
15.38	2410
15.39	2470
15.4	2395
15.41	2280
15.42	2250
15.43	2370
15.44	2400
15.45	2385
15.46	2345
15.47	2400
15.48	2430
15.49	2415
15.5	2470
15.51	2435
15.52	2375
15.53	2320
15.54	2300
15.55	2345
15.56	2405
15.57	2340
15.58	2350
15.59	2385
15.6	2405
15.61	2400
15.62	2370
15.63	2370
15.64	2295
15.65	2275
15.66	2330
15.67	2315
15.68	2345
15.69	2375
15.7	2335
15.71	2255
15.72	2190
15.73	2170
15.74	2305
15.75	2435
15.76	2375
15.77	2390
15.78	2420
15.79	2430
15.8	2365
15.81	2335
15.82	2370
15.83	2475
15.84	2460
15.85	2460
15.86	2430
15.87	2425
15.88	2405
15.89	2380
15.9	2425
15.91	2435
15.92	2345
15.93	2315
15.94	2415
15.95	2440
15.96	2315
15.97	2310
15.98	2255
15.99	2300
16	2380
16.01	2345
16.02	2385
16.03	2425
16.04	2455
16.05	2425
16.06	2350
16.07	2355
16.08	2505
16.09	2660
16.1	2660
16.11	2560
16.12	2565
16.13	2645
16.14	2800
16.15	3060
16.16	3315
16.17	3640
16.18	4085
16.19	4535
16.2	5080
16.21	5590
16.22	6450
16.23	7620
16.24	8875
16.25	10410
16.26	12105
16.27	13425
16.28	14285
16.29	14855
16.3	14700
16.31	13875
16.32	12695
16.33	11195
16.34	9490
16.35	7840
16.36	6600
16.37	5580
16.38	4590
16.39	3790
16.4	3420
16.41	3245
16.42	2990
16.43	2810
16.44	2740
16.45	2670
16.46	2510
16.47	2535
16.48	2415
16.49	2400
16.5	2470
16.51	2425
16.52	2405
16.53	2440
16.54	2445
16.55	2375
16.56	2280
16.57	2345
16.58	2405
16.59	2450
16.6	2440
16.61	2475
16.62	2390
16.63	2380
16.64	2400
16.65	2470
16.66	2460
16.67	2455
16.68	2420
16.69	2445
16.7	2405
16.71	2485
16.72	2450
16.73	2350
16.74	2360
16.75	2430
16.76	2440
16.77	2355
16.78	2355
16.79	2390
16.8	2405
16.81	2500
16.82	2445
16.83	2375
16.84	2330
16.85	2270
16.86	2260
16.87	2300
16.88	2420
16.89	2470
16.9	2400
16.91	2410
16.92	2490
16.93	2530
16.94	2465
16.95	2410
16.96	2500
16.97	2520
16.98	2570
16.99	2670
17	2745
17.01	2805
17.02	2915
17.03	2995
17.04	3080
17.05	3245
17.06	3280
17.07	3510
17.08	3830
17.09	3990
17.1	4050
17.11	4220
17.12	4315
17.13	4505
17.14	4710
17.15	4790
17.16	4785
17.17	4960
17.18	5045
17.19	5225
17.2	5490
17.21	5530
17.22	5840
17.23	6325
17.24	6505
17.25	6560
17.26	6345
17.27	6080
17.28	5845
17.29	5505
17.3	5075
17.31	4630
17.32	4180
17.33	3870
17.34	3565
17.35	3285
17.36	3020
17.37	2830
17.38	2705
17.39	2610
17.4	2650
17.41	2715
17.42	2710
17.43	2650
17.44	2585
17.45	2495
17.46	2480
17.47	2510
17.48	2395
17.49	2355
17.5	2390
17.51	2305
17.52	2315
17.53	2295
17.54	2355
17.55	2465
17.56	2540
17.57	2425
17.58	2290
17.59	2230
17.6	2275
17.61	2370
17.62	2470
17.63	2390
17.64	2300
17.65	2305
17.66	2290
17.67	2325
17.68	2350
17.69	2335
17.7	2195
17.71	2305
17.72	2340
17.73	2280
17.74	2230
17.75	2265
17.76	2315
17.77	2255
17.78	2245
17.79	2255
17.8	2255
17.81	2250
17.82	2265
17.83	2365
17.84	2355
17.85	2230
17.86	2250
17.87	2220
17.88	2210
17.89	2260
17.9	2205
17.91	2270
17.92	2250
17.93	2255
17.94	2245
17.95	2300
17.96	2365
17.97	2350
17.98	2320
17.99	2370
18	2315
18.01	2280
18.02	2300
18.03	2290
18.04	2375
18.05	2425
18.06	2340
18.07	2225
18.08	2315
18.09	2395
18.1	2365
18.11	2315
18.12	2355
18.13	2290
18.14	2380
18.15	2320
18.16	2330
18.17	2410
18.18	2505
18.19	2495
18.2	2400
18.21	2330
18.22	2500
18.23	2680
18.24	2810
18.25	2845
18.26	2965
18.27	3040
18.28	3350
18.29	3340
18.3	3495
18.31	3740
18.32	3870
18.33	3930
18.34	3965
18.35	3870
18.36	3815
18.37	3910
18.38	3840
18.39	3845
18.4	3725
18.41	3580
18.42	3540
18.43	3655
18.44	3870
18.45	4035
18.46	4185
18.47	4260
18.48	4455
18.49	4830
18.5	4955
18.51	5045
18.52	5620
18.53	5835
18.54	6035
18.55	6335
18.56	6355
18.57	6280
18.58	6215
18.59	6155
18.6	5650
18.61	5310
18.62	5035
18.63	4580
18.64	4245
18.65	4010
18.66	3755
18.67	3455
18.68	3240
18.69	3060
18.7	2975
18.71	2855
18.72	2765
18.73	2620
18.74	2630
18.75	2605
18.76	2610
18.77	2565
18.78	2615
18.79	2500
18.8	2445
18.81	2515
18.82	2565
18.83	2475
18.84	2520
18.85	2485
18.86	2430
18.87	2395
18.88	2445
18.89	2425
18.9	2455
18.91	2460
18.92	2615
18.93	2820
18.94	2855
18.95	2845
18.96	2950
18.97	3155
18.98	3720
18.99	4290
19	4740
19.01	5495
19.02	6350
19.03	7410
19.04	8485
19.05	9375
19.06	10525
19.07	11440
19.08	12475
19.09	12760
19.1	12205
19.11	11295
19.12	10390
19.13	9270
19.14	8125
19.15	6790
19.16	5620
19.17	4720
19.18	4125
19.19	3460
19.2	2950
19.21	2755
19.22	2655
19.23	2480
19.24	2520
19.25	2500
19.26	2330
19.27	2275
19.28	2350
19.29	2465
19.3	2435
19.31	2365
19.32	2295
19.33	2445
19.34	2560
19.35	2535
19.36	2535
19.37	2620
19.38	2600
19.39	2610
19.4	2760
19.41	2770
19.42	2765
19.43	2825
19.44	2825
19.45	2845
19.46	2710
19.47	2745
19.48	2835
19.49	2885
19.5	2845
19.51	2790
19.52	2765
19.53	2700
19.54	2595
19.55	2660
19.56	2760
19.57	2785
19.58	2820
19.59	2895
19.6	2860
19.61	3030
19.62	2955
19.63	3105
19.64	3030
19.65	3115
19.66	3205
19.67	3305
19.68	3280
19.69	3345
19.7	3455
19.71	3520
19.72	3545
19.73	3420
19.74	3340
19.75	3520
19.76	3595
19.77	3410
19.78	3300
19.79	3150
19.8	2905
19.81	2875
19.82	2770
19.83	2550
19.84	2585
19.85	2495
19.86	2555
19.87	2515
19.88	2395
19.89	2295
19.9	2215
19.91	2375
19.92	2410
19.93	2345
19.94	2350
19.95	2395
19.96	2410
19.97	2360
19.98	2425
19.99	2445
20	2380
20.01	2355
20.02	2405
20.03	2280
20.04	2195
20.05	2275
20.06	2210
20.07	2140
20.08	2185
20.09	2280
20.1	2240
20.11	2180
20.12	2210
20.13	2265
20.14	2425
20.15	2490
20.16	2350
20.17	2405
20.18	2435
20.19	2520
20.2	2495
20.21	2655
20.22	2695
20.23	2825
20.24	3005
20.25	2930
20.26	2830
20.27	2835
20.28	2790
20.29	2500
20.3	2485
20.31	2350
20.32	2230
20.33	2195
20.34	2090
20.35	2050
20.36	2010
20.37	2100
20.38	2125
20.39	2060
20.4	2115
20.41	2035
20.42	1970
20.43	2010
20.44	1985
20.45	1995
20.46	2005
20.47	2070
20.48	1895
20.49	1980
20.5	2085
20.51	2035
20.52	1920
20.53	2020
20.54	1940
20.55	1835
20.56	1945
20.57	2045
20.58	2035
20.59	1960
20.6	1945
20.61	1940
20.62	1875
20.63	1855
20.64	1750
20.65	1850
20.66	1880
20.67	1945
20.68	1920
20.69	1895
20.7	2130
20.71	1990
20.72	1835
20.73	1930
20.74	1840
20.75	1850
20.76	1905
20.77	1930
20.78	1900
20.79	2000
20.8	1950
20.81	1955
20.82	2005
20.83	1985
20.84	2070
20.85	2055
20.86	2000
20.87	1975
20.88	2100
20.89	2080
20.9	2160
20.91	2140
20.92	2165
20.93	2220
20.94	2235
20.95	2210
20.96	2245
20.97	2365
20.98	2270
20.99	2225
21	2315
21.01	2350
21.02	2220
21.03	2305
21.04	2455
21.05	2435
21.06	2405
21.07	2410
21.08	2535
21.09	2590
21.1	2330
21.11	2360
21.12	2425
21.13	2355
21.14	2435
21.15	2500
21.16	2465
21.17	2520
21.18	2645
21.19	2740
21.2	2750
21.21	2745
21.22	2955
21.23	2880
21.24	2885
21.25	2890
21.26	2910
21.27	2800
21.28	2755
21.29	2790
21.3	2625
21.31	2540
21.32	2685
21.33	2620
21.34	2555
21.35	2480
21.36	2740
21.37	2680
21.38	2665
21.39	2655
21.4	2875
21.41	3005
21.42	3065
21.43	3075
21.44	3335
21.45	3580
21.46	3805
21.47	4145
21.48	4810
21.49	5420
21.5	6570
21.51	7995
21.52	9850
21.53	12275
21.54	15420
21.55	19290
21.56	24235
21.57	29695
21.58	36350
21.59	42290
21.6	47235
21.61	49205
21.62	48815
21.63	47180
21.64	43590
21.65	39025
21.66	33715
21.67	29600
21.68	24825
21.69	20265
21.7	15890
21.71	12295
21.72	9500
21.73	7350
21.74	5830
21.75	4980
21.76	4380
21.77	3990
21.78	3885
21.79	3800
21.8	3545
21.81	3510
21.82	3305
21.83	3275
21.84	3350
21.85	3400
21.86	3445
21.87	3585
21.88	3790
21.89	3780
21.9	3700
21.91	3970
21.92	4030
21.93	3900
21.94	4005
21.95	4060
21.96	3985
21.97	3845
21.98	3560
21.99	3545
22	3455
22.01	3335
22.02	3190
22.03	3080
22.04	3090
22.05	3130
22.06	3030
22.07	3025
22.08	3015
22.09	3185
22.1	3515
22.11	3475
22.12	3560
22.13	3845
22.14	4170
22.15	4715
22.16	5200
22.17	5760
22.18	5950
22.19	6410
22.2	7240
22.21	8300
22.22	8910
22.23	9525
22.24	10945
22.25	12800
22.26	14630
22.27	17065
22.28	20435
22.29	24125
22.3	28285
22.31	32960
22.32	37200
22.33	41115
22.34	43030
22.35	44580
22.36	43220
22.37	40655
22.38	36830
22.39	33605
22.4	30235
22.41	27505
22.42	23825
22.43	20240
22.44	17610
22.45	14935
22.46	12980
22.47	11270
22.48	9945
22.49	8885
22.5	8090
22.51	7480
22.52	6780
22.53	5965
22.54	5275
22.55	4770
22.56	4530
22.57	4070
22.58	3880
22.59	3720
22.6	3565
22.61	3265
22.62	3305
22.63	3345
22.64	3200
22.65	3070
22.66	3035
22.67	2960
22.68	2925
22.69	2770
22.7	2795
22.71	2720
22.72	2555
22.73	2620
22.74	2590
22.75	2455
22.76	2370
22.77	2400
22.78	2465
22.79	2430
22.8	2425
22.81	2500
22.82	2305
22.83	2295
22.84	2245
22.85	2150
22.86	2245
22.87	2395
22.88	2520
22.89	2570
22.9	2610
22.91	2775
22.92	2925
22.93	2980
22.94	3105
22.95	3555
22.96	3675
22.97	4140
22.98	4735
22.99	4895
23	5405
23.01	5640
23.02	5685
23.03	5630
23.04	5480
23.05	5345
23.06	5095
23.07	4755
23.08	4595
23.09	4290
23.1	3945
23.11	3625
23.12	3470
23.13	3295
23.14	3065
23.15	2855
23.16	2610
23.17	2500
23.18	2610
23.19	2660
23.2	2475
23.21	2330
23.22	2350
23.23	2345
23.24	2415
23.25	2450
23.26	2430
23.27	2285
23.28	2300
23.29	2440
23.3	2515
23.31	2465
23.32	2395
23.33	2420
23.34	2515
23.35	2510
23.36	2525
23.37	2550
23.38	2595
23.39	2615
23.4	2555
23.41	2650
23.42	2835
23.43	2790
23.44	2905
23.45	2930
23.46	3085
23.47	3320
23.48	3695
23.49	3960
23.5	4025
23.51	4175
23.52	4460
23.53	4560
23.54	4620
23.55	4540
23.56	4325
23.57	4340
23.58	4315
23.59	4100
23.6	3835
23.61	3805
23.62	3650
23.63	3520
23.64	3535
23.65	3725
23.66	3835
23.67	4115
23.68	4480
23.69	5230
23.7	5995
23.71	7250
23.72	9065
23.73	11025
23.74	13590
23.75	16780
23.76	20360
23.77	24230
23.78	28095
23.79	30585
23.8	31045
23.81	30045
23.82	28290
23.83	26050
23.84	23480
23.85	21285
23.86	18940
23.87	16130
23.88	13030
23.89	10410
23.9	8265
23.91	6555
23.92	5055
23.93	4095
23.94	3600
23.95	3315
23.96	3225
23.97	3050
23.98	2895
23.99	2805
24	2555
24.01	2510
24.02	2475
24.03	2415
24.04	2340
24.05	2385
24.06	2340
24.07	2245
24.08	2255
24.09	2250
24.1	2220
24.11	2085
24.12	2030
24.13	2015
24.14	2090
24.15	2095
24.16	2115
24.17	2105
24.18	2105
24.19	2165
24.2	2090
24.21	2055
24.22	2025
24.23	2060
24.24	2025
24.25	1965
24.26	1920
24.27	1965
24.28	2035
24.29	2080
24.3	2070
24.31	2045
24.32	1950
24.33	1960
24.34	1955
24.35	1945
24.36	1880
24.37	1720
24.38	1725
24.39	1840
24.4	1950
24.41	1980
24.42	1860
24.43	1850
24.44	1890
24.45	1880
24.46	1840
24.47	1745
24.48	1825
24.49	1880
24.5	1895
24.51	1910
24.52	1895
24.53	1900
24.54	1905
24.55	1895
24.56	1860
24.57	1825
24.58	1840
24.59	1935
24.6	1865
24.61	1855
24.62	1870
24.63	1825
24.64	1835
24.65	1895
24.66	1875
24.67	1855
24.68	1835
24.69	1935
24.7	2060
24.71	1995
24.72	2045
24.73	1980
24.74	1975
24.75	1980
24.76	1965
24.77	1915
24.78	1895
24.79	1880
24.8	1830
24.81	1875
24.82	1935
24.83	1865
24.84	1825
24.85	1855
24.86	1885
24.87	1835
24.88	1770
24.89	1710
24.9	1700
24.91	1775
24.92	1840
24.93	1775
24.94	1740
24.95	1810
24.96	1820
24.97	1825
24.98	1760
24.99	1790
25	1755
25.01	1745
25.02	1730
25.03	1750
25.04	1725
25.05	1660
25.06	1690
25.07	1715
25.08	1675
25.09	1775
25.1	1825
25.11	1730
25.12	1705
25.13	1690
25.14	1695
25.15	1720
25.16	1780
25.17	1765
25.18	1740
25.19	1735
25.2	1795
25.21	1850
25.22	1835
25.23	1795
25.24	1835
25.25	1840
25.26	1760
25.27	1785
25.28	1740
25.29	1660
25.3	1720
25.31	1820
25.32	1815
25.33	1680
25.34	1700
25.35	1690
25.36	1625
25.37	1650
25.38	1730
25.39	1725
25.4	1725
25.41	1660
25.42	1635
25.43	1655
25.44	1705
25.45	1725
25.46	1720
25.47	1720
25.48	1740
25.49	1755
25.5	1755
25.51	1735
25.52	1715
25.53	1790
25.54	1715
25.55	1675
25.56	1675
25.57	1740
25.58	1740
25.59	1745
25.6	1730
25.61	1785
25.62	1840
25.63	1810
25.64	1785
25.65	1780
25.66	1760
25.67	1790
25.68	1900
25.69	1935
25.7	1955
25.71	2040
25.72	2125
25.73	2150
25.74	2245
25.75	2345
25.76	2425
25.77	2415
25.78	2410
25.79	2460
25.8	2505
25.81	2445
25.82	2280
25.83	2225
25.84	2230
25.85	2195
25.86	2145
25.87	2055
25.88	1935
25.89	1890
25.9	1850
25.91	1730
25.92	1695
25.93	1720
25.94	1700
25.95	1770
25.96	1740
25.97	1680
25.98	1680
25.99	1620
26	1630
26.01	1685
26.02	1620
26.03	1585
26.04	1635
26.05	1655
26.06	1565
26.07	1535
26.08	1565
26.09	1555
26.1	1570
26.11	1565
26.12	1620
26.13	1690
26.14	1655
26.15	1575
26.16	1570
26.17	1615
26.18	1555
26.19	1575
26.2	1595
26.21	1520
26.22	1455
26.23	1500
26.24	1650
26.25	1690
26.26	1680
26.27	1640
26.28	1555
26.29	1500
26.3	1465
26.31	1475
26.32	1485
26.33	1525
26.34	1615
26.35	1630
26.36	1565
26.37	1505
26.38	1540
26.39	1605
26.4	1620
26.41	1660
26.42	1655
26.43	1565
26.44	1545
26.45	1575
26.46	1565
26.47	1565
26.48	1590
26.49	1605
26.5	1585
26.51	1655
26.52	1695
26.53	1660
26.54	1650
26.55	1720
26.56	1760
26.57	1775
26.58	1800
26.59	1735
26.6	1700
26.61	1735
26.62	1795
26.63	1780
26.64	1715
26.65	1755
26.66	1840
26.67	1910
26.68	2020
26.69	2085
26.7	2075
26.71	2120
26.72	2195
26.73	2190
26.74	2135
26.75	2140
26.76	2145
26.77	2045
26.78	2015
26.79	2075
26.8	2035
26.81	2000
26.82	1985
26.83	1960
26.84	2075
26.85	2260
26.86	2390
26.87	2540
26.88	2705
26.89	2920
26.9	3110
26.91	3200
26.92	3210
26.93	3175
26.94	3115
26.95	3050
26.96	2900
26.97	2695
26.98	2580
26.99	2505
27	2355
27.01	2165
27.02	2090
27.03	2100
27.04	1940
27.05	1785
27.06	1730
27.07	1760
27.08	1825
27.09	1820
27.1	1760
27.11	1780
27.12	1815
27.13	1755
27.14	1740
27.15	1735
27.16	1700
27.17	1695
27.18	1650
27.19	1615
27.2	1635
27.21	1755
27.22	1860
27.23	1850
27.24	1710
27.25	1685
27.26	1715
27.27	1645
27.28	1595
27.29	1635
27.3	1635
27.31	1580
27.32	1640
27.33	1685
27.34	1645
27.35	1660
27.36	1675
27.37	1605
27.38	1520
27.39	1530
27.4	1520
27.41	1495
27.42	1535
27.43	1550
27.44	1470
27.45	1575
27.46	1675
27.47	1540
27.48	1450
27.49	1520
27.5	1595
27.51	1570
27.52	1615
27.53	1625
27.54	1610
27.55	1645
27.56	1630
27.57	1610
27.58	1715
27.59	1840
27.6	1815
27.61	1825
27.62	1895
27.63	1935
27.64	2000
27.65	2140
27.66	2325
27.67	2630
27.68	2935
27.69	3470
27.7	4150
27.71	5015
27.72	5775
27.73	6670
27.74	7790
27.75	8605
27.76	8955
27.77	8975
27.78	8775
27.79	8230
27.8	7555
27.81	6790
27.82	6335
27.83	5960
27.84	5435
27.85	4810
27.86	4255
27.87	3630
27.88	3040
27.89	2580
27.9	2240
27.91	2075
27.92	1915
27.93	1900
27.94	1840
27.95	1735
27.96	1665
27.97	1700
27.98	1685
27.99	1575
28	1555
28.01	1585
28.02	1610
28.03	1585
28.04	1520
28.05	1600
28.06	1650
28.07	1650
28.08	1635
28.09	1560
28.1	1550
28.11	1550
28.12	1540
28.13	1530
28.14	1595
28.15	1605
28.16	1550
28.17	1485
28.18	1475
28.19	1550
28.2	1580
28.21	1600
28.22	1605
28.23	1595
28.24	1595
28.25	1750
28.26	1925
28.27	1980
28.28	1960
28.29	2085
28.3	2345
28.31	2455
28.32	2585
28.33	2680
28.34	3035
28.35	3515
28.36	4050
28.37	4570
28.38	5345
28.39	6260
28.4	7265
28.41	8230
28.42	9025
28.43	9855
28.44	10140
28.45	9895
28.46	9525
28.47	9015
28.48	8455
28.49	7935
28.5	7420
28.51	6810
28.52	6115
28.53	5295
28.54	4545
28.55	4100
28.56	3675
28.57	3225
28.58	2845
28.59	2430
28.6	2160
28.61	1920
28.62	1820
28.63	1800
28.64	1855
28.65	1745
28.66	1730
28.67	1725
28.68	1665
28.69	1585
28.7	1520
28.71	1540
28.72	1585
28.73	1455
28.74	1535
28.75	1585
28.76	1500
28.77	1490
28.78	1475
28.79	1500
28.8	1585
28.81	1630
28.82	1680
28.83	1645
28.84	1570
28.85	1505
28.86	1540
28.87	1535
28.88	1500
28.89	1465
28.9	1390
28.91	1375
28.92	1385
28.93	1420
28.94	1395
28.95	1440
28.96	1475
28.97	1455
28.98	1440
28.99	1335
29	1355
29.01	1305
29.02	1275
29.03	1310
29.04	1280
29.05	1365
29.06	1370
29.07	1295
29.08	1295
29.09	1315
29.1	1305
29.11	1260
29.12	1310
29.13	1305
29.14	1290
29.15	1285
29.16	1350
29.17	1310
29.18	1265
29.19	1230
29.2	1225
29.21	1265
29.22	1365
29.23	1425
29.24	1415
29.25	1405
29.26	1335
29.27	1215
29.28	1345
29.29	1310
29.3	1235
29.31	1250
29.32	1325
29.33	1300
29.34	1300
29.35	1260
29.36	1345
29.37	1400
29.38	1325
29.39	1255
29.4	1370
29.41	1280
29.42	1320
29.43	1345
29.44	1260
29.45	1245
29.46	1295
29.47	1265
29.48	1285
29.49	1290
29.5	1360
29.51	1320
29.52	1400
29.53	1320
29.54	1260
29.55	1330
29.56	1330
29.57	1355
29.58	1420
29.59	1380
29.6	1325
29.61	1420
29.62	1460
29.63	1390
29.64	1375
29.65	1505
29.66	1585
29.67	1615
29.68	1550
29.69	1475
29.7	1465
29.71	1500
29.72	1550
29.73	1530
29.74	1490
29.75	1445
29.76	1360
29.77	1325
29.78	1385
29.79	1440
29.8	1475
29.81	1500
29.82	1540
29.83	1585
29.84	1605
29.85	1540
29.86	1500
29.87	1680
29.88	1895
29.89	2025
29.9	2130
29.91	2180
29.92	2200
29.93	2325
29.94	2425
29.95	2575
29.96	2685
29.97	2650
29.98	2875
29.99	2895
30	2915
30.01	3025
30.02	3030
30.03	2710
30.04	2555
30.05	2465
30.06	2405
30.07	2380
30.08	2270
30.09	2295
30.1	2250
30.11	2120
30.12	1985
30.13	1855
30.14	1790
30.15	1635
30.16	1635
30.17	1715
30.18	1640
30.19	1785
30.2	1655
30.21	1630
30.22	1505
30.23	1405
30.24	1445
30.25	1535
30.26	1550
30.27	1435
30.28	1440
30.29	1665
30.3	1735
30.31	1645
30.32	1645
30.33	1675
30.34	1775
30.35	1765
30.36	1870
30.37	1920
30.38	1975
30.39	2195
30.4	2210
30.41	2205
30.42	2185
30.43	2160
30.44	2155
30.45	2055
30.46	2075
30.47	1960
30.48	1965
30.49	1905
30.5	1780
30.51	1755
30.52	1670
30.53	1585
30.54	1560
30.55	1540
30.56	1455
30.57	1540
30.58	1510
30.59	1470
30.6	1510
30.61	1500
30.62	1330
30.63	1435
30.64	1360
30.65	1315
30.66	1305
30.67	1295
30.68	1320
30.69	1420
30.7	1400
30.71	1395
30.72	1340
30.73	1240
30.74	1290
30.75	1330
30.76	1300
30.77	1310
30.78	1205
30.79	1275
30.8	1280
30.81	1425
30.82	1415
30.83	1330
30.84	1490
30.85	1450
30.86	1380
30.87	1415
30.88	1400
30.89	1340
30.9	1390
30.91	1320
30.92	1260
30.93	1290
30.94	1345
30.95	1330
30.96	1315
30.97	1330
30.98	1445
30.99	1490
31	1480
31.01	1500
31.02	1590
31.03	1655
31.04	1745
31.05	1705
31.06	1830
31.07	2015
31.08	2135
31.09	2195
31.1	2460
31.11	2480
31.12	2510
31.13	2370
31.14	2190
31.15	2305
31.16	2415
31.17	2235
31.18	2290
31.19	2270
31.2	2245
31.21	2215
31.22	2055
31.23	1920
31.24	1805
31.25	1670
31.26	1750
31.27	1650
31.28	1750
31.29	1585
31.3	1635
31.31	1600
31.32	1675
31.33	1565
31.34	1500
31.35	1495
31.36	1440
31.37	1445
31.38	1425
31.39	1315
31.4	1300
31.41	1395
31.42	1450
31.43	1395
31.44	1270
31.45	1380
31.46	1400
31.47	1405
31.48	1350
31.49	1265
31.5	1270
31.51	1330
31.52	1275
31.53	1320
31.54	1240
31.55	1315
31.56	1265
31.57	1230
31.58	1260
31.59	1195
31.6	1225
31.61	1310
31.62	1335
31.63	1260
31.64	1260
31.65	1420
31.66	1400
31.67	1410
31.68	1325
31.69	1280
31.7	1350
31.71	1400
31.72	1370
31.73	1275
31.74	1240
31.75	1265
31.76	1335
31.77	1375
31.78	1340
31.79	1325
31.8	1290
31.81	1275
31.82	1245
31.83	1295
31.84	1305
31.85	1355
31.86	1310
31.87	1320
31.88	1210
31.89	1310
31.9	1415
31.91	1395
31.92	1340
31.93	1390
31.94	1420
31.95	1380
31.96	1350
31.97	1375
31.98	1380
31.99	1320
32	1275
32.01	1225
32.02	1260
32.03	1355
32.04	1265
32.05	1320
32.06	1340
32.07	1260
32.08	1305
32.09	1275
32.1	1250
32.11	1375
32.12	1370
32.13	1390
32.14	1260
32.15	1165
32.16	1315
32.17	1410
32.18	1370
32.19	1285
32.2	1255
32.21	1295
32.22	1330
32.23	1450
32.24	1470
32.25	1375
32.26	1500
32.27	1520
32.28	1500
32.29	1615
32.3	1675
32.31	1530
32.32	1555
32.33	1575
32.34	1485
32.35	1570
32.36	1610
32.37	1600
32.38	1635
32.39	1610
32.4	1695
32.41	1635
32.42	1610
32.43	1675
32.44	1690
32.45	1625
32.46	1575
32.47	1665
32.48	1705
32.49	1685
32.5	1650
32.51	1530
32.52	1610
32.53	1750
32.54	1640
32.55	1770
32.56	1705
32.57	1780
32.58	1750
32.59	1715
32.6	1780
32.61	1855
32.62	1715
32.63	1745
32.64	1845
32.65	1900
32.66	1955
32.67	1970
32.68	1975
32.69	2125
32.7	2280
32.71	2415
32.72	2430
32.73	2570
32.74	2655
32.75	2790
32.76	3065
32.77	3395
32.78	3905
32.79	4230
32.8	4770
32.81	5780
32.82	6940
32.83	8620
32.84	10690
32.85	12985
32.86	15540
32.87	18180
32.88	20620
32.89	22585
32.9	24075
32.91	25425
32.92	26110
32.93	26795
32.94	26285
32.95	25490
32.96	23895
32.97	21730
32.98	19880
32.99	17875
33	16515
33.01	15110
33.02	13715
33.03	12620
33.04	10950
33.05	9045
33.06	7410
33.07	6225
33.08	5255
33.09	4475
33.1	4020
33.11	3670
33.12	3495
33.13	3290
33.14	3060
33.15	2990
33.16	2810
33.17	2595
33.18	2635
33.19	2640
33.2	2430
33.21	2400
33.22	2495
33.23	2530
33.24	2460
33.25	2475
33.26	2565
33.27	2720
33.28	2935
33.29	3055
33.3	3385
33.31	3990
33.32	4700
33.33	5745
33.34	6930
33.35	8155
33.36	10115
33.37	12170
33.38	14270
33.39	15920
33.4	16575
33.41	16275
33.42	15085
33.43	13395
33.44	11850
33.45	10820
33.46	10255
33.47	10200
33.48	9940
33.49	9500
33.5	8920
33.51	7825
33.52	6585
33.53	5150
33.54	4270
33.55	3555
33.56	3030
33.57	2670
33.58	2530
33.59	2390
33.6	2315
33.61	2245
33.62	2110
33.63	2050
33.64	1965
33.65	1895
33.66	1860
33.67	1845
33.68	1740
33.69	1725
33.7	1700
33.71	1685
33.72	1695
33.73	1630
33.74	1540
33.75	1590
33.76	1505
33.77	1520
33.78	1550
33.79	1485
33.8	1465
33.81	1445
33.82	1390
33.83	1480
33.84	1555
33.85	1535
33.86	1455
33.87	1415
33.88	1345
33.89	1425
33.9	1410
33.91	1420
33.92	1445
33.93	1430
33.94	1360
33.95	1440
33.96	1400
33.97	1390
33.98	1495
33.99	1425
34	1465
34.01	1445
34.02	1450
34.03	1505
34.04	1585
34.05	1625
34.06	1600
34.07	1590
34.08	1655
34.09	1805
34.1	1950
34.11	1930
34.12	1960
34.13	2050
34.14	2085
34.15	2165
34.16	2285
34.17	2340
34.18	2470
34.19	2620
34.2	2760
34.21	2815
34.22	2925
34.23	2890
34.24	2870
34.25	2875
34.26	2970
34.27	2925
34.28	2810
34.29	2855
34.3	2940
34.31	2950
34.32	3065
34.33	3125
34.34	3265
34.35	3605
34.36	3810
34.37	3990
34.38	4345
34.39	5000
34.4	5615
34.41	6425
34.42	7255
34.43	8135
34.44	8915
34.45	9510
34.46	9440
34.47	9150
34.48	8860
34.49	8200
34.5	7615
34.51	7395
34.52	7330
34.53	7110
34.54	6960
34.55	6860
34.56	6390
34.57	5935
34.58	5580
34.59	5060
34.6	4585
34.61	4155
34.62	3940
34.63	3640
34.64	3530
34.65	3520
34.66	3500
34.67	3505
34.68	3410
34.69	3315
34.7	3250
34.71	3370
34.72	3470
34.73	3600
34.74	3835
34.75	4120
34.76	4565
34.77	5165
34.78	5865
34.79	6640
34.8	7590
34.81	8750
34.82	9785
34.83	10710
34.84	11470
34.85	12205
34.86	12580
34.87	12565
34.88	11760
34.89	10650
34.9	9720
34.91	8805
34.92	8225
34.93	7735
34.94	7420
34.95	7155
34.96	6770
34.97	6140
34.98	5240
34.99	4270
35	3490
35.01	2995
35.02	2580
35.03	2270
35.04	2070
35.05	1960
35.06	1880
35.07	1820
35.08	1765
35.09	1725
35.1	1580
35.11	1545
35.12	1505
35.13	1515
35.14	1530
35.15	1430
35.16	1385
35.17	1400
35.18	1440
35.19	1470
35.2	1455
35.21	1485
35.22	1510
35.23	1510
35.24	1510
35.25	1470
35.26	1435
35.27	1445
35.28	1490
35.29	1500
35.3	1450
35.31	1380
35.32	1330
35.33	1360
35.34	1395
35.35	1450
35.36	1485
35.37	1445
35.38	1435
35.39	1465
35.4	1465
35.41	1420
35.42	1385
35.43	1350
35.44	1330
35.45	1350
35.46	1410
35.47	1400
35.48	1400
35.49	1515
35.5	1670
35.51	1705
35.52	1640
35.53	1580
35.54	1545
35.55	1515
35.56	1470
35.57	1415
35.58	1505
35.59	1650
35.6	1655
35.61	1550
35.62	1555
35.63	1720
35.64	1760
35.65	1780
35.66	1885
35.67	1975
35.68	2130
35.69	2305
35.7	2330
35.71	2205
35.72	2210
35.73	2285
35.74	2235
35.75	2155
35.76	2215
35.77	2265
35.78	2295
35.79	2310
35.8	2430
35.81	2520
35.82	2600
35.83	2735
35.84	2890
35.85	2945
35.86	2960
35.87	3200
35.88	3600
35.89	4085
35.9	4535
35.91	4915
35.92	5470
35.93	6080
35.94	6370
35.95	6100
35.96	5755
35.97	5265
35.98	4745
35.99	4395
36	4135
36.01	4105
36.02	4105
36.03	4115
36.04	4025
36.05	3700
36.06	3340
36.07	2990
36.08	2670
36.09	2320
36.1	2025
36.11	1870
36.12	1760
36.13	1660
36.14	1625
36.15	1550
36.16	1465
36.17	1495
36.18	1550
36.19	1550
36.2	1485
36.21	1510
36.22	1605
36.23	1665
36.24	1625
36.25	1540
36.26	1475
36.27	1485
36.28	1600
36.29	1595
36.3	1555
36.31	1585
36.32	1620
36.33	1655
36.34	1670
36.35	1685
36.36	1710
36.37	1800
36.38	1875
36.39	1865
36.4	1830
36.41	1845
36.42	1900
36.43	1880
36.44	1840
36.45	1800
36.46	1730
36.47	1715
36.48	1675
36.49	1640
36.5	1695
36.51	1780
36.52	1815
36.53	1765
36.54	1785
36.55	1890
36.56	1915
36.57	1835
36.58	1765
36.59	1790
36.6	1815
36.61	1735
36.62	1645
36.63	1655
36.64	1665
36.65	1690
36.66	1650
36.67	1655
36.68	1710
36.69	1730
36.7	1755
36.71	1720
36.72	1705
36.73	1750
36.74	1795
36.75	1835
36.76	1945
36.77	2055
36.78	2110
36.79	2190
36.8	2320
36.81	2460
36.82	2505
36.83	2545
36.84	2600
36.85	2695
36.86	2890
36.87	3020
36.88	3065
36.89	3155
36.9	3280
36.91	3305
36.92	3300
36.93	3260
36.94	3315
36.95	3410
36.96	3245
36.97	3080
36.98	3095
36.99	3065
37	2870
37.01	2710
37.02	2650
37.03	2550
37.04	2400
37.05	2325
37.06	2280
37.07	2095
37.08	1880
37.09	1835
37.1	1805
37.11	1735
37.12	1730
37.13	1675
37.14	1605
37.15	1530
37.16	1485
37.17	1420
37.18	1365
37.19	1405
37.2	1470
37.21	1525
37.22	1445
37.23	1375
37.24	1420
37.25	1400
37.26	1335
37.27	1365
37.28	1365
37.29	1390
37.3	1460
37.31	1470
37.32	1465
37.33	1485
37.34	1490
37.35	1510
37.36	1545
37.37	1555
37.38	1675
37.39	1715
37.4	1700
37.41	1705
37.42	1720
37.43	1620
37.44	1540
37.45	1630
37.46	1650
37.47	1630
37.48	1645
37.49	1625
37.5	1605
37.51	1600
37.52	1550
37.53	1480
37.54	1485
37.55	1480
37.56	1445
37.57	1405
37.58	1300
37.59	1275
37.6	1285
37.61	1230
37.62	1205
37.63	1225
37.64	1160
37.65	1130
37.66	1150
37.67	1150
37.68	1160
37.69	1160
37.7	1140
37.71	1125
37.72	1115
37.73	1120
37.74	1120
37.75	1175
37.76	1165
37.77	1115
37.78	1125
37.79	1130
37.8	1100
37.81	1035
37.82	1060
37.83	1160
37.84	1135
37.85	1100
37.86	1120
37.87	1145
37.88	1180
37.89	1190
37.9	1185
37.91	1170
37.92	1095
37.93	1045
37.94	1100
37.95	1165
37.96	1165
37.97	1115
37.98	1125
37.99	1130
38	1130
38.01	1135
38.02	1135
38.03	1155
38.04	1190
38.05	1115
38.06	1050
38.07	1035
38.08	1040
38.09	1055
38.1	1080
38.11	1100
38.12	1080
38.13	1015
38.14	1025
38.15	1070
38.16	1145
38.17	1130
38.18	1055
38.19	1035
38.2	1035
38.21	1015
38.22	1000
38.23	1020
38.24	1035
38.25	1035
38.26	1070
38.27	1085
38.28	1050
38.29	1060
38.3	1075
38.31	1055
38.32	1050
38.33	1060
38.34	1040
38.35	1030
38.36	1030
38.37	1015
38.38	1065
38.39	1125
38.4	1060
38.41	1035
38.42	1065
38.43	1070
38.44	1090
38.45	1110
38.46	1150
38.47	1185
38.48	1190
38.49	1220
38.5	1225
38.51	1205
38.52	1230
38.53	1195
38.54	1145
38.55	1245
38.56	1350
38.57	1405
38.58	1505
38.59	1605
38.6	1750
38.61	1960
38.62	2215
38.63	2525
38.64	2825
38.65	3290
38.66	3845
38.67	4260
38.68	4555
38.69	4800
38.7	4865
38.71	4600
38.72	4310
38.73	4010
38.74	3625
38.75	3440
38.76	3325
38.77	3245
38.78	3240
38.79	3180
38.8	3075
38.81	2895
38.82	2650
38.83	2350
38.84	2065
38.85	1915
38.86	1670
38.87	1470
38.88	1360
38.89	1300
38.9	1235
38.91	1165
38.92	1115
38.93	1080
38.94	1055
38.95	1095
38.96	1100
38.97	1050
38.98	1065
38.99	1135
39	1110
39.01	1040
39.02	1050
39.03	1065
39.04	1025
39.05	940
39.06	960
39.07	1000
39.08	1035
39.09	1020
39.1	1015
39.11	940
39.12	965
39.13	1060
39.14	1050
39.15	1030
39.16	1010
39.17	985
39.18	1020
39.19	1105
39.2	1090
39.21	1010
39.22	995
39.23	1080
39.24	1050
39.25	970
39.26	955
39.27	1005
39.28	995
39.29	960
39.3	1030
39.31	960
39.32	915
39.33	990
39.34	1020
39.35	1035
39.36	1015
39.37	1015
39.38	950
39.39	955
39.4	1010
39.41	1025
39.42	1050
39.43	1060
39.44	1015
39.45	995
39.46	945
39.47	920
39.48	995
39.49	1000
39.5	1025
39.51	1015
39.52	1000
39.53	1010
39.54	975
39.55	985
39.56	1020
39.57	1050
39.58	1110
39.59	1140
39.6	1190
39.61	1185
39.62	1120
39.63	1145
39.64	1245
39.65	1240
39.66	1225
39.67	1275
39.68	1360
39.69	1450
39.7	1485
39.71	1525
39.72	1600
39.73	1715
39.74	1765
39.75	1905
39.76	2000
39.77	2020
39.78	1980
39.79	1885
39.8	1875
39.81	1830
39.82	1760
39.83	1750
39.84	1760
39.85	1690
39.86	1580
39.87	1515
39.88	1565
39.89	1515
39.9	1485
39.91	1420
39.92	1430
39.93	1395
39.94	1410
39.95	1335
39.96	1205
39.97	1210
39.98	1245
39.99	1295
40	1415
40.01	1420
40.02	1385
40.03	1445
40.04	1635
40.05	1855
40.06	2155
40.07	2405
40.08	2775
40.09	3195
40.1	3405
40.11	3430
40.12	3395
40.13	3240
40.14	2820
40.15	2455
40.16	2315
40.17	2315
40.18	2360
40.19	2395
40.2	2405
40.21	2385
40.22	2360
40.23	2190
40.24	1970
40.25	1830
40.26	1705
40.27	1550
40.28	1435
40.29	1415
40.3	1415
40.31	1395
40.32	1360
40.33	1375
40.34	1435
40.35	1430
40.36	1410
40.37	1335
40.38	1330
40.39	1345
40.4	1325
40.41	1285
40.42	1300
40.43	1215
40.44	1135
40.45	1145
40.46	1150
40.47	1145
40.48	1110
40.49	1145
40.5	1165
40.51	1095
40.52	1065
40.53	1105
40.54	1090
40.55	1065
40.56	980
40.57	985
40.58	1020
40.59	970
40.6	1000
40.61	1070
40.62	1125
40.63	1100
40.64	1010
40.65	905
40.66	875
40.67	980
40.68	1025
40.69	945
40.7	945
40.71	1000
40.72	1080
40.73	1030
40.74	995
40.75	1020
40.76	975
40.77	960
40.78	1015
40.79	960
40.8	1000
40.81	1090
40.82	1020
40.83	995
40.84	950
40.85	945
40.86	1000
40.87	1000
40.88	990
40.89	1035
40.9	1010
40.91	1050
40.92	1105
40.93	1090
40.94	1020
40.95	1045
40.96	1070
40.97	1110
40.98	1040
40.99	1035
41	1090
41.01	1215
41.02	1210
41.03	1210
41.04	1260
41.05	1340
41.06	1260
41.07	1175
41.08	1175
41.09	1095
41.1	1100
41.11	1160
41.12	1285
41.13	1355
41.14	1390
41.15	1450
41.16	1380
41.17	1380
41.18	1390
41.19	1410
41.2	1545
41.21	1580
41.22	1685
41.23	1770
41.24	1880
41.25	2050
41.26	2240
41.27	2565
41.28	2915
41.29	3320
41.3	3785
41.31	4515
41.32	5060
41.33	5740
41.34	6415
41.35	6875
41.36	7255
41.37	7325
41.38	7270
41.39	7110
41.4	6840
41.41	6455
41.42	6310
41.43	5950
41.44	5710
41.45	5590
41.46	5575
41.47	5525
41.48	5285
41.49	4975
41.5	4760
41.51	4335
41.52	3935
41.53	3620
41.54	3210
41.55	2735
41.56	2480
41.57	2450
41.58	2365
41.59	2245
41.6	2100
41.61	1965
41.62	1855
41.63	1810
41.64	1780
41.65	1670
41.66	1600
41.67	1575
41.68	1505
41.69	1425
41.7	1380
41.71	1420
41.72	1365
41.73	1355
41.74	1335
41.75	1235
41.76	1245
41.77	1285
41.78	1330
41.79	1290
41.8	1345
41.81	1450
41.82	1400
41.83	1435
41.84	1570
41.85	1770
41.86	1765
41.87	1900
41.88	1985
41.89	1970
41.9	2010
41.91	2005
41.92	1920
41.93	1980
41.94	2045
41.95	1955
41.96	1905
41.97	1980
41.98	1980
41.99	2060
42	2135
42.01	2235
42.02	2330
42.03	2505
42.04	2730
42.05	3045
42.06	3355
42.07	3755
42.08	4145
42.09	4355
42.1	4680
42.11	4950
42.12	5105
42.13	5010
42.14	4935
42.15	4990
42.16	4970
42.17	4775
42.18	5010
42.19	5120
42.2	5290
42.21	5405
42.22	5095
42.23	5020
42.24	5130
42.25	4815
42.26	4485
42.27	4380
42.28	4250
42.29	4075
42.3	3865
42.31	3735
42.32	3575
42.33	3470
42.34	3410
42.35	3345
42.36	3300
42.37	3200
42.38	2975
42.39	2795
42.4	2700
42.41	2505
42.42	2405
42.43	2405
42.44	2155
42.45	2040
42.46	1930
42.47	1835
42.48	1790
42.49	1715
42.5	1585
42.51	1460
42.52	1490
42.53	1520
42.54	1485
42.55	1355
42.56	1175
42.57	1160
42.58	1185
42.59	1110
42.6	1080
42.61	1130
42.62	1100
42.63	990
42.64	1095
42.65	1170
42.66	1085
42.67	1030
42.68	980
42.69	980
42.7	1060
42.71	1085
42.72	1100
42.73	1050
42.74	1040
42.75	1015
42.76	1020
42.77	1020
42.78	1065
42.79	1120
42.8	1065
42.81	1000
42.82	1015
42.83	1040
42.84	1105
42.85	1125
42.86	1120
42.87	1120
42.88	1165
42.89	1130
42.9	1130
42.91	1050
42.92	1210
42.93	1225
42.94	1200
42.95	1185
42.96	1180
42.97	1335
42.98	1495
42.99	1650
43	1815
43.01	2070
43.02	2245
43.03	2495
43.04	2795
43.05	2930
43.06	3145
43.07	3235
43.08	3120
43.09	3045
43.1	2825
43.11	2550
43.12	2400
43.13	2260
43.14	2100
43.15	2050
43.16	2160
43.17	2210
43.18	2165
43.19	2105
43.2	1920
43.21	1695
43.22	1580
43.23	1545
43.24	1390
43.25	1270
43.26	1185
43.27	1115
43.28	1190
43.29	1155
43.3	1180
43.31	1170
43.32	1140
43.33	1170
43.34	1205
43.35	1295
43.36	1200
43.37	1190
43.38	1185
43.39	1180
43.4	1160
43.41	1150
43.42	1105
43.43	1120
43.44	1100
43.45	1045
43.46	1095
43.47	1065
43.48	1020
43.49	985
43.5	970
43.51	955
43.52	980
43.53	1015
43.54	1070
43.55	1005
43.56	975
43.57	1010
43.58	1055
43.59	970
43.6	920
43.61	975
43.62	1015
43.63	1090
43.64	1155
43.65	1125
43.66	1085
43.67	1100
43.68	1145
43.69	1135
43.7	1070
43.71	1090
43.72	1125
43.73	1095
43.74	1120
43.75	1090
43.76	1025
43.77	1020
43.78	1045
43.79	1075
43.8	1085
43.81	1030
43.82	1055
43.83	985
43.84	990
43.85	1020
43.86	1050
43.87	980
43.88	985
43.89	970
43.9	1030
43.91	1125
43.92	1135
43.93	1185
43.94	1265
43.95	1295
43.96	1295
43.97	1340
43.98	1480
43.99	1640
44	1650
44.01	1660
44.02	1655
44.03	1550
44.04	1490
44.05	1530
44.06	1395
44.07	1280
44.08	1200
44.09	1210
44.1	1240
44.11	1280
44.12	1300
44.13	1270
44.14	1320
44.15	1220
44.16	1135
44.17	1160
44.18	1180
44.19	1140
44.2	1055
44.21	1025
44.22	950
44.23	935
44.24	935
44.25	925
44.26	965
44.27	1000
44.28	1030
44.29	1005
44.3	985
44.31	950
44.32	930
44.33	945
44.34	940
44.35	910
44.36	915
44.37	995
44.38	965
44.39	970
44.4	985
44.41	955
44.42	875
44.43	870
44.44	885
44.45	915
44.46	905
44.47	845
44.48	855
44.49	950
44.5	915
44.51	835
44.52	890
44.53	870
44.54	970
44.55	965
44.56	935
44.57	910
44.58	855
44.59	865
44.6	930
44.61	955
44.62	940
44.63	925
44.64	880
44.65	885
44.66	865
44.67	860
44.68	890
44.69	880
44.7	890
44.71	920
44.72	955
44.73	1005
44.74	925
44.75	855
44.76	835
44.77	895
44.78	845
44.79	790
44.8	855
44.81	890
44.82	920
44.83	950
44.84	930
44.85	865
44.86	850
44.87	885
44.88	885
44.89	880
44.9	855
44.91	910
44.92	915
44.93	850
44.94	835
44.95	845
44.96	875
44.97	895
44.98	890
44.99	910
45	805
45.01	835
45.02	910
45.03	935
45.04	955
45.05	1005
45.06	1040
45.07	985
45.08	990
45.09	1055
45.1	1200
45.11	1350
45.12	1485
45.13	1740
45.14	1945
45.15	2120
45.16	2445
45.17	2615
45.18	2585
45.19	2595
45.2	2475
45.21	2375
45.22	2275
45.23	2135
45.24	1930
45.25	1750
45.26	1720
45.27	1915
45.28	2000
45.29	1940
45.3	1925
45.31	1925
45.32	1785
45.33	1645
45.34	1555
45.35	1425
45.36	1345
45.37	1265
45.38	1155
45.39	1105
45.4	1065
45.41	1090
45.42	1010
45.43	1060
45.44	1035
45.45	1010
45.46	1030
45.47	1035
45.48	1045
45.49	1000
45.5	1005
45.51	1100
45.52	1150
45.53	1120
45.54	1200
45.55	1330
45.56	1325
45.57	1290
45.58	1335
45.59	1375
45.6	1250
45.61	1210
45.62	1190
45.63	1050
45.64	1020
45.65	1075
45.66	1095
45.67	1075
45.68	1090
45.69	1105
45.7	1130
45.71	1085
45.72	1025
45.73	1005
45.74	990
45.75	970
45.76	920
45.77	930
45.78	950
45.79	910
45.8	875
45.81	925
45.82	955
45.83	900
45.84	945
45.85	955
45.86	930
45.87	930
45.88	940
45.89	940
45.9	935
45.91	945
45.92	915
45.93	890
45.94	930
45.95	970
45.96	970
45.97	985
45.98	1005
45.99	1005
46	1035
46.01	970
46.02	1000
46.03	1110
46.04	1135
46.05	1120
46.06	1085
46.07	1135
46.08	1115
46.09	1225
46.1	1315
46.11	1390
46.12	1400
46.13	1400
46.14	1435
46.15	1405
46.16	1420
46.17	1405
46.18	1315
46.19	1265
46.2	1350
46.21	1370
46.22	1415
46.23	1415
46.24	1460
46.25	1560
46.26	1560
46.27	1545
46.28	1655
46.29	1820
46.3	1885
46.31	1925
46.32	2055
46.33	2170
46.34	2390
46.35	2510
46.36	2510
46.37	2600
46.38	2660
46.39	2660
46.4	2590
46.41	2475
46.42	2560
46.43	2660
46.44	2775
46.45	2845
46.46	2945
46.47	3105
46.48	3155
46.49	3255
46.5	3170
46.51	2935
46.52	2695
46.53	2430
46.54	2250
46.55	2220
46.56	2125
46.57	2005
46.58	2015
46.59	2085
46.6	2050
46.61	1960
46.62	1975
46.63	1975
46.64	1905
46.65	1755
46.66	1630
46.67	1530
46.68	1535
46.69	1500
46.7	1420
46.71	1375
46.72	1360
46.73	1425
46.74	1455
46.75	1490
46.76	1505
46.77	1575
46.78	1655
46.79	1800
46.8	1930
46.81	1950
46.82	1920
46.83	2135
46.84	2300
46.85	2290
46.86	2280
46.87	2240
46.88	2090
46.89	1980
46.9	1895
46.91	1780
46.92	1720
46.93	1650
46.94	1525
46.95	1535
46.96	1660
46.97	1745
46.98	1710
46.99	1650
47	1645
47.01	1515
47.02	1440
47.03	1410
47.04	1255
47.05	1185
47.06	1190
47.07	1150
47.08	1150
47.09	1240
47.1	1190
47.11	1085
47.12	1130
47.13	1120
47.14	1040
47.15	1050
47.16	1040
47.17	1045
47.18	1055
47.19	1015
47.2	1075
47.21	1120
47.22	1145
47.23	1080
47.24	1000
47.25	1075
47.26	1225
47.27	1275
47.28	1265
47.29	1340
47.3	1460
47.31	1530
47.32	1550
47.33	1595
47.34	1675
47.35	1665
47.36	1695
47.37	1720
47.38	1815
47.39	1980
47.4	2065
47.41	2040
47.42	2075
47.43	2225
47.44	2335
47.45	2335
47.46	2450
47.47	2670
47.48	2660
47.49	2625
47.5	2845
47.51	3205
47.52	3385
47.53	3690
47.54	4085
47.55	4495
47.56	4975
47.57	5430
47.58	5770
47.59	5760
47.6	5770
47.61	5720
47.62	5750
47.63	5580
47.64	5220
47.65	4830
47.66	4565
47.67	4400
47.68	4260
47.69	4230
47.7	4145
47.71	3960
47.72	3885
47.73	3745
47.74	3495
47.75	3245
47.76	3020
47.77	2860
47.78	2655
47.79	2315
47.8	2115
47.81	1930
47.82	1735
47.83	1635
47.84	1555
47.85	1455
47.86	1375
47.87	1310
47.88	1285
47.89	1185
47.9	1085
47.91	1070
47.92	1060
47.93	1055
47.94	1010
47.95	990
47.96	980
47.97	1020
47.98	995
47.99	940
48	975
48.01	975
48.02	945
48.03	945
48.04	995
48.05	1000
48.06	970
48.07	935
48.08	930
48.09	955
48.1	935
48.11	935
48.12	960
48.13	960
48.14	990
48.15	980
48.16	945
48.17	905
48.18	900
48.19	890
48.2	860
48.21	860
48.22	935
48.23	975
48.24	935
48.25	845
48.26	820
48.27	915
48.28	950
48.29	945
48.3	920
48.31	870
48.32	890
48.33	970
48.34	980
48.35	900
48.36	875
48.37	880
48.38	950
48.39	1020
48.4	1030
48.41	995
48.42	975
48.43	1010
48.44	1030
48.45	1030
48.46	1110
48.47	1120
48.48	1110
48.49	1165
48.5	1170
48.51	1160
48.52	1190
48.53	1255
48.54	1355
48.55	1370
48.56	1440
48.57	1715
48.58	1955
48.59	2055
48.6	2245
48.61	2605
48.62	3105
48.63	3620
48.64	4045
48.65	4515
48.66	5075
48.67	5505
48.68	5635
48.69	5670
48.7	5580
48.71	5330
48.72	5030
48.73	4685
48.74	4320
48.75	3950
48.76	3735
48.77	3710
48.78	3665
48.79	3695
48.8	3665
48.81	3520
48.82	3445
48.83	3330
48.84	3150
48.85	2895
48.86	2670
48.87	2455
48.88	2165
48.89	1930
48.9	1730
48.91	1495
48.92	1355
48.93	1355
48.94	1320
48.95	1255
48.96	1240
48.97	1215
48.98	1235
48.99	1300
49	1230
49.01	1085
49.02	1160
49.03	1230
49.04	1170
49.05	1145
49.06	1110
49.07	1130
49.08	1185
49.09	1215
49.1	1195
49.11	1225
49.12	1285
49.13	1260
49.14	1245
49.15	1270
49.16	1205
49.17	1125
49.18	1165
49.19	1180
49.2	1190
49.21	1205
49.22	1260
49.23	1330
49.24	1310
49.25	1335
49.26	1355
49.27	1325
49.28	1345
49.29	1290
49.3	1170
49.31	1120
49.32	1140
49.33	1200
49.34	1150
49.35	1065
49.36	1100
49.37	1145
49.38	1135
49.39	1085
49.4	1085
49.41	1075
49.42	985
49.43	930
49.44	960
49.45	1015
49.46	1040
49.47	1050
49.48	1040
49.49	970
49.5	920
49.51	965
49.52	985
49.53	970
49.54	950
49.55	930
49.56	980
49.57	1005
49.58	935
49.59	865
49.6	910
49.61	975
49.62	995
49.63	1045
49.64	1060
49.65	990
49.66	955
49.67	1000
49.68	1040
49.69	1030
49.7	1045
49.71	1030
49.72	975
49.73	1005
49.74	1010
49.75	995
49.76	1005
49.77	1020
49.78	1070
49.79	1115
49.8	1175
49.81	1220
49.82	1260
49.83	1385
49.84	1495
49.85	1580
49.86	1785
49.87	1930
49.88	1965
49.89	2045
49.9	2125
49.91	2185
49.92	2315
49.93	2470
49.94	2515
49.95	2410
49.96	2255
49.97	2120
49.98	1990
49.99	1845
50	1785
50.01	1720
50.02	1685
50.03	1780
50.04	1865
50.05	1905
50.06	1900
50.07	1765
50.08	1665
50.09	1665
50.1	1660
50.11	1585
50.12	1545
50.13	1495
50.14	1305
50.15	1285
50.16	1345
50.17	1365
50.18	1335
50.19	1410
50.2	1550
50.21	1635
50.22	1770
50.23	1900
50.24	1905
50.25	1885
50.26	1825
50.27	1780
50.28	1680
50.29	1570
50.3	1430
50.31	1370
50.32	1445
50.33	1520
50.34	1510
50.35	1465
50.36	1515
50.37	1635
50.38	1570
50.39	1485
50.4	1465
50.41	1400
50.42	1310
50.43	1250
50.44	1210
50.45	1185
50.46	1180
50.47	1220
50.48	1250
50.49	1190
50.5	1120
50.51	1130
50.52	1095
50.53	1135
50.54	1175
50.55	1050
50.56	1095
50.57	1155
50.58	1110
50.59	1100
50.6	1145
50.61	1130
50.62	1130
50.63	1115
50.64	1165
50.65	1205
50.66	1190
50.67	1195
50.68	1195
50.69	1180
50.7	1170
50.71	1205
50.72	1185
50.73	1195
50.74	1210
50.75	1280
50.76	1380
50.77	1355
50.78	1345
50.79	1460
50.8	1540
50.81	1495
50.82	1470
50.83	1505
50.84	1485
50.85	1395
50.86	1410
50.87	1450
50.88	1480
50.89	1470
50.9	1460
50.91	1375
50.92	1345
50.93	1410
50.94	1515
50.95	1450
50.96	1395
50.97	1435
50.98	1520
50.99	1440
51	1425
51.01	1490
51.02	1515
51.03	1510
51.04	1510
51.05	1460
51.06	1410
51.07	1335
51.08	1380
51.09	1425
51.1	1395
51.11	1345
51.12	1350
51.13	1375
51.14	1290
51.15	1345
51.16	1420
51.17	1355
51.18	1280
51.19	1280
51.2	1270
51.21	1320
51.22	1345
51.23	1270
51.24	1205
51.25	1205
51.26	1235
51.27	1195
51.28	1240
51.29	1310
51.3	1350
51.31	1315
51.32	1265
51.33	1305
51.34	1325
51.35	1380
51.36	1395
51.37	1455
51.38	1420
51.39	1325
51.4	1360
51.41	1320
51.42	1330
51.43	1350
51.44	1270
51.45	1295
51.46	1320
51.47	1225
51.48	1210
51.49	1190
51.5	1205
51.51	1245
51.52	1250
51.53	1200
51.54	1175
51.55	1155
51.56	1125
51.57	1180
51.58	1175
51.59	1155
51.6	1180
51.61	1140
51.62	1160
51.63	1140
51.64	1150
51.65	1140
51.66	1080
51.67	1105
51.68	1075
51.69	1015
51.7	1000
51.71	1030
51.72	1050
51.73	1030
51.74	1020
51.75	1050
51.76	1100
51.77	1080
51.78	1065
51.79	1045
51.8	1020
51.81	1015
51.82	965
51.83	975
51.84	1005
51.85	985
51.86	1030
51.87	1085
51.88	1015
51.89	930
51.9	935
51.91	975
51.92	980
51.93	970
51.94	990
51.95	955
51.96	935
51.97	1005
51.98	1065
51.99	1015
52	1045
52.01	975
52.02	935
52.03	895
52.04	925
52.05	905
52.06	890
52.07	875
52.08	930
52.09	875
52.1	885
52.11	945
52.12	965
52.13	930
52.14	955
52.15	940
52.16	930
52.17	985
52.18	990
52.19	975
52.2	1000
52.21	975
52.22	1010
52.23	1050
52.24	1085
52.25	1110
52.26	1090
52.27	1065
52.28	1135
52.29	1185
52.3	1255
52.31	1360
52.32	1510
52.33	1540
52.34	1685
52.35	1845
52.36	2140
52.37	2370
52.38	2600
52.39	2955
52.4	3155
52.41	3420
52.42	3685
52.43	3660
52.44	3475
52.45	3450
52.46	3205
52.47	2875
52.48	2625
52.49	2355
52.5	2190
52.51	2205
52.52	2285
52.53	2370
52.54	2395
52.55	2485
52.56	2325
52.57	2270
52.58	2290
52.59	2205
52.6	2035
52.61	1930
52.62	1715
52.63	1540
52.64	1400
52.65	1335
52.66	1205
52.67	1200
52.68	1150
52.69	1125
52.7	1140
52.71	1125
52.72	1035
52.73	1035
52.74	1015
52.75	985
52.76	980
52.77	1030
52.78	1025
52.79	980
52.8	1020
52.81	975
52.82	1015
52.83	995
52.84	1005
52.85	1055
52.86	1060
52.87	1025
52.88	1050
52.89	1045
52.9	1055
52.91	1045
52.92	1110
52.93	1165
52.94	1165
52.95	1170
52.96	1255
52.97	1200
52.98	1195
52.99	1205
53	1165
53.01	1125
53.02	1155
53.03	1105
53.04	1160
53.05	1060
53.06	1110
53.07	1130
53.08	1115
53.09	1145
53.1	1085
53.11	1055
53.12	1105
53.13	1080
53.14	1095
53.15	1090
53.16	1070
53.17	1125
53.18	1155
53.19	1165
53.2	1140
53.21	1210
53.22	1165
53.23	1160
53.24	1180
53.25	1175
53.26	1235
53.27	1240
53.28	1260
53.29	1190
53.3	1170
53.31	1095
53.32	1115
53.33	1210
53.34	1240
53.35	1205
53.36	1220
53.37	1250
53.38	1220
53.39	1215
53.4	1290
53.41	1340
53.42	1370
53.43	1410
53.44	1480
53.45	1590
53.46	1455
53.47	1495
53.48	1585
53.49	1835
53.5	1965
53.51	2075
53.52	2125
53.53	2390
53.54	2500
53.55	2555
53.56	2780
53.57	3075
53.58	3195
53.59	3310
53.6	3255
53.61	3035
53.62	2860
53.63	2725
53.64	2665
53.65	2375
53.66	2310
53.67	2200
53.68	2125
53.69	1995
53.7	2050
53.71	2220
53.72	2285
53.73	2240
53.74	2270
53.75	2025
53.76	1925
53.77	1875
53.78	1700
53.79	1495
53.8	1530
53.81	1435
53.82	1385
53.83	1355
53.84	1215
53.85	1185
53.86	1240
53.87	1195
53.88	1135
53.89	1110
53.9	1220
53.91	1250
53.92	1210
53.93	1190
53.94	1110
53.95	1150
53.96	1170
53.97	1195
53.98	1340
53.99	1330
54	1340
54.01	1350
54.02	1405
54.03	1490
54.04	1580
54.05	1650
54.06	1705
54.07	1745
54.08	1840
54.09	2050
54.1	2085
54.11	2115
54.12	2085
54.13	2090
54.14	1965
54.15	1855
54.16	1955
54.17	1955
54.18	1850
54.19	1870
54.2	1930
54.21	2175
54.22	2145
54.23	2155
54.24	2225
54.25	2410
54.26	2580
54.27	2435
54.28	2330
54.29	2245
54.3	1995
54.31	1760
54.32	1580
54.33	1590
54.34	1525
54.35	1530
54.36	1510
54.37	1450
54.38	1505
54.39	1470
54.4	1495
54.41	1685
54.42	1595
54.43	1665
54.44	1610
54.45	1480
54.46	1495
54.47	1540
54.48	1495
54.49	1455
54.5	1370
54.51	1355
54.52	1350
54.53	1445
54.54	1480
54.55	1295
54.56	1320
54.57	1425
54.58	1360
54.59	1220
54.6	1255
54.61	1365
54.62	1365
54.63	1290
54.64	1285
54.65	1320
54.66	1420
54.67	1355
54.68	1295
54.69	1330
54.7	1325
54.71	1320
54.72	1275
54.73	1245
54.74	1205
54.75	1250
54.76	1305
54.77	1390
54.78	1320
54.79	1155
54.8	1230
54.81	1285
54.82	1100
54.83	1180
54.84	1210
54.85	1285
54.86	1190
54.87	1175
54.88	1270
54.89	1325
54.9	1405
54.91	1480
54.92	1345
54.93	1435
54.94	1505
54.95	1700
54.96	1855
54.97	1695
54.98	1730
54.99	1775
55	1850
55.01	1785
55.02	1785
55.03	1750
55.04	1775
55.05	1790
55.06	1815
55.07	1685
55.08	1620
55.09	1820
55.1	1835
55.11	1790
55.12	1720
55.13	1630
55.14	1755
55.15	1780
55.16	1810
55.17	1775
55.18	1835
55.19	1950
55.2	2010
55.21	1935
55.22	1935
55.23	2000
55.24	1910
55.25	2010
55.26	2035
55.27	2000
55.28	2055
55.29	2055
55.3	2070
55.31	2130
55.32	2200
55.33	2400
55.34	2410
55.35	2400
55.36	2565
55.37	2655
55.38	2745
55.39	2530
55.4	2340
55.41	2310
55.42	2285
55.43	2015
55.44	1915
55.45	1965
55.46	1905
55.47	1910
55.48	1860
55.49	1740
55.5	1910
55.51	1955
55.52	1985
55.53	2005
55.54	1960
55.55	1980
55.56	2005
55.57	2175
55.58	2195
55.59	2335
55.6	2470
55.61	2680
55.62	2950
55.63	3010
55.64	2955
55.65	2845
55.66	2725
55.67	2750
55.68	2430
55.69	2165
55.7	2005
55.71	2020
55.72	1920
55.73	1920
55.74	1905
55.75	1955
55.76	2065
55.77	2180
55.78	2115
55.79	1965
55.8	1960
55.81	1930
55.82	1890
55.83	1785
55.84	1550
55.85	1420
55.86	1335
55.87	1280
55.88	1265
55.89	1210
55.9	1130
55.91	1160
55.92	1190
55.93	1165
55.94	1140
55.95	1195
55.96	1210
55.97	1160
55.98	1115
55.99	1160
56	1130
56.01	1220
56.02	1170
56.03	1215
56.04	1255
56.05	1340
56.06	1370
56.07	1445
56.08	1555
56.09	1550
56.1	1555
56.11	1645
56.12	1685
56.13	1805
56.14	1965
56.15	2085
56.16	2310
56.17	2430
56.18	2465
56.19	2445
56.2	2540
56.21	2585
56.22	2615
56.23	2445
56.24	2250
56.25	2395
56.26	2310
56.27	2245
56.28	2035
56.29	1955
56.3	1805
56.31	1800
56.32	1790
56.33	1815
56.34	1800
56.35	1900
56.36	1995
56.37	1920
56.38	1685
56.39	1600
56.4	1620
56.41	1610
56.42	1465
56.43	1425
56.44	1325
56.45	1300
56.46	1305
56.47	1255
56.48	1300
56.49	1395
56.5	1330
56.51	1340
56.52	1460
56.53	1535
56.54	1435
56.55	1415
56.56	1500
56.57	1470
56.58	1450
56.59	1490
56.6	1580
56.61	1585
56.62	1565
56.63	1660
56.64	1645
56.65	1600
56.66	1585
56.67	1600
56.68	1635
56.69	1655
56.7	1520
56.71	1575
56.72	1655
56.73	1595
56.74	1585
56.75	1450
56.76	1420
56.77	1405
56.78	1330
56.79	1325
56.8	1400
56.81	1440
56.82	1325
56.83	1210
56.84	1230
56.85	1370
56.86	1265
56.87	1210
56.88	1185
56.89	1225
56.9	1210
56.91	1195
56.92	1225
56.93	1160
56.94	1225
56.95	1280
56.96	1310
56.97	1220
56.98	1340
56.99	1485
57	1520
57.01	1565
57.02	1595
57.03	1535
57.04	1525
57.05	1575
57.06	1710
57.07	1620
57.08	1555
57.09	1605
57.1	1685
57.11	1635
57.12	1625
57.13	1710
57.14	1630
57.15	1685
57.16	1630
57.17	1550
57.18	1570
57.19	1620
57.2	1610
57.21	1670
57.22	1730
57.23	1860
57.24	1995
57.25	2170
57.26	2270
57.27	2495
57.28	2630
57.29	2710
57.3	2725
57.31	3030
57.32	3205
57.33	3115
57.34	3125
57.35	3150
57.36	3005
57.37	2940
57.38	2870
57.39	2595
57.4	2585
57.41	2655
57.42	2480
57.43	2260
57.44	2150
57.45	2070
57.46	2080
57.47	2130
57.48	2135
57.49	2070
57.5	2030
57.51	1935
57.52	1900
57.53	1780
57.54	1635
57.55	1555
57.56	1430
57.57	1400
57.58	1315
57.59	1235
57.6	1180
57.61	1145
57.62	1080
57.63	1085
57.64	1095
57.65	970
57.66	985
57.67	980
57.68	1010
57.69	1020
57.7	1090
57.71	1100
57.72	1060
57.73	1030
57.74	1040
57.75	1055
57.76	1055
57.77	1040
57.78	1125
57.79	1115
57.8	1025
57.81	945
57.82	940
57.83	970
57.84	975
57.85	935
57.86	975
57.87	985
57.88	920
57.89	940
57.9	975
57.91	970
57.92	930
57.93	935
57.94	905
57.95	900
57.96	885
57.97	835
57.98	855
57.99	915
58	920
58.01	930
58.02	875
58.03	885
58.04	930
58.05	955
58.06	885
58.07	905
58.08	895
58.09	805
58.1	860
58.11	910
58.12	940
58.13	900
58.14	940
58.15	860
58.16	910
58.17	890
58.18	895
58.19	890
58.2	850
58.21	1010
58.22	980
58.23	940
58.24	955
58.25	1005
58.26	975
58.27	945
58.28	1005
58.29	1020
58.3	985
58.31	865
58.32	875
58.33	1055
58.34	1080
58.35	1065
58.36	1055
58.37	1080
58.38	1230
58.39	1220
58.4	1245
58.41	1155
58.42	1250
58.43	1330
58.44	1375
58.45	1300
58.46	1275
58.47	1300
58.48	1340
58.49	1380
58.5	1360
58.51	1310
58.52	1225
58.53	1270
58.54	1395
58.55	1465
58.56	1505
58.57	1620
58.58	1705
58.59	1590
58.6	1725
58.61	1985
58.62	2235
58.63	2280
58.64	2475
58.65	2730
58.66	2945
58.67	3500
58.68	4035
58.69	4455
58.7	5035
58.71	5970
58.72	6595
58.73	7075
58.74	7745
58.75	8225
58.76	8310
58.77	8280
58.78	7785
58.79	7205
58.8	6895
58.81	6430
58.82	6100
58.83	5890
58.84	5915
58.85	5970
58.86	5970
58.87	6070
58.88	6110
58.89	6125
58.9	6140
58.91	5980
58.92	5725
58.93	5360
58.94	5065
58.95	4810
58.96	4390
58.97	3985
58.98	3525
58.99	3405
59	3270
59.01	3065
59.02	2785
59.03	2670
59.04	2535
59.05	2195
59.06	2050
59.07	1955
59.08	1890
59.09	1675
59.1	1450
59.11	1370
59.12	1385
59.13	1540
59.14	1505
59.15	1415
59.16	1360
59.17	1285
59.18	1190
59.19	1220
59.2	1205
59.21	1285
59.22	1260
59.23	1195
59.24	1165
59.25	1175
59.26	1215
59.27	1265
59.28	1290
59.29	1220
59.3	1190
59.31	1240
59.32	1270
59.33	1260
59.34	1285
59.35	1465
59.36	1540
59.37	1465
59.38	1540
59.39	1620
59.4	1570
59.41	1710
59.42	1655
59.43	1690
59.44	1820
59.45	1665
59.46	1730
59.47	1735
59.48	1665
59.49	1675
59.5	1535
59.51	1530
59.52	1495
59.53	1500
59.54	1500
59.55	1500
59.56	1530
59.57	1520
59.58	1550
59.59	1595
59.6	1600
59.61	1535
59.62	1520
59.63	1445
59.64	1340
59.65	1245
59.66	1270
59.67	1280
59.68	1250
59.69	1225
59.7	1190
59.71	1105
59.72	1185
59.73	1185
59.74	1060
59.75	1055
59.76	1095
59.77	1050
59.78	1025
59.79	1050
59.8	1115
59.81	1125
59.82	1155
59.83	1145
59.84	1130
59.85	1210
59.86	1285
59.87	1400
59.88	1425
59.89	1480
59.9	1475
59.91	1590
59.92	1680
59.93	1765
59.94	1685
59.95	1685
59.96	1655
59.97	1650
59.98	1650
59.99	1650
60	1650
